Threshold(mV) Counts
     0        166439
     5        195861
    10        200968
    15        202494
    20        203166
    25        206187
    30        208654
    35        281707
    40        359744
    45        361522
    50        280135
    55        249352
    60        256809
    65        265224
    70        276887
    75        287593
    80        292142
    85        293548
    90        293622
    95        291908
   100        288867
   105        284036
   110        278201
   115        276060
   120        272807
   125        270035
   130        268304
   135        268770
   140        267721
   145        265683
   150        264336
   155        261872
   160        258736
   165        257436
   170        253651
   175        251817
   180        251249
   185        247782
   190        241800
   195        194631
   200        109902
   205         67958
   210         61638
   215         59609
   220         59227
   225         57231
   230         55817
   235         54448
   240         52931
   245         51124
   250         48884
   255         46839
   260         45336
   265         42638
   270         39978
   275         37971
   280         36654
   285         35245
   290         34246
   295         33524
   300         33421
   305         32183
   310         31544
   315         30894
   320         30162
   325         29846
   330         29020
   335         28832
   340         28133
   345         27760
   350         27073
   355         26536
   360         26041
   365         25915
   370         25200
   375         24838
   380         23908
   385         22162
   390         16883
   395         11471
   400          8854
   405          8122
   410          7792
   415          7653
   420          7668
   425          7419
   430          7128
   435          6960
   440          6567
   445          6193
   450          6299
   455          6005
   460          5712
   465          5532
   470          5246
   475          5065
   480          4847
   485          4707
   490          4655
   495          4774
   500          4534
   505          4306
   510          4374
   515          4175
   520          4175
   525          4182
   530          4140
   535          4070
   540          3829
   545          3750
   550          3722
   555          3708
   560          3210
   565          2550
   570          2159
   575          1617
   580          1419
   585          1300
   590          1365
   595          1275
   600          1181
