Threshold(mV) Counts
     0         86582
     5        108315
    10        110281
    15        111033
    20        115036
    25        120470
    30        115695
    35        117071
    40        120964
    45        123974
    50        123860
    55        120141
    60        118384
    65        117938
    70        118332
    75        117256
    80        116089
    85        116414
    90        115371
    95        107001
   100         60649
   105         16155
   110          8796
   115          8474
   120          8025
   125          7512
   130          6848
   135          6324
   140          5917
   145          5366
   150          5044
   155          4898
   160          4703
   165          4750
   170          4744
   175          4548
   180          4527
   185          4501
   190          4312
   195          4381
   200          3992
   205          2893
   210          1573
   215           684
   220           471
   225           420
   230           445
   235           384
   240           376
   245           349
   250           301
