Threshold(mV) Counts
     0        113426
     5        134480
    10        137677
    15        138493
    20        140272
    25        160261
    30        214483
    35        151954
    40        150703
    45        154945
    50        161933
    55        165688
    60        166426
    65        165699
    70        161174
    75        158256
    80        157266
    85        157041
    90        155748
    95        155025
   100        154409
   105        152904
   110        151218
   115        150861
   120        149581
   125        150012
   130        133187
   135         75711
   140         27055
   145         18468
   150         17608
   155         16861
   160         16376
   165         15391
   170         14455
   175         13448
   180         12403
   185         11370
   190         10797
   195         10207
   200          9982
   205          9928
   210          9863
   215          9593
   220          9344
   225          9147
   230          9035
   235          9097
   240          8711
   245          8713
   250          8377
   255          8291
   260          8029
   265          7537
   270          5492
   275          3144
   280          1677
   285          1365
   290          1356
   295          1216
   300          1238
   305          1152
   310          1117
   315           964
   320          1008
   325           950
   330           916
   335           924
   340           830
   345           844
   350           815
   355           785
   360           806
   365           790
   370           801
   375           750
   380           718
   385           708
   390           651
   395           593
   400           439
   405           261
   410           174
   415           127
   420           126
   425           104
   430           111
   435           109
   440            98
   445           108
   450            91
